OPTIS - Spectrum file v1
Transmittance
151
350	0
373.478	0
378.696	0
378.983	1.15453
379.851	2.38771
380.139	3.3749
381.004	5.71917
381.006	4.60808
381.582	7.07626
381.869	8.43381
382.447	9.91436
383.023	12.0122
383.6	13.6162
384.466	15.3432
385.043	17.1941
385.319	25.3417
385.323	23.1195
385.62	18.5512
385.892	29.0444
385.895	27.1926
385.906	20.8964
386.465	33.241
387.041	35.0919
387.048	31.0179
387.618	36.6959
388.193	39.5344
388.195	38.5468
388.77	41.015
389.636	43.1123
389.923	44.8403
390.21	46.5682
391.656	48.4177
392.81	51.7492
393.675	54.3404
395.12	56.8072
395.406	59.0289
395.982	61.3736
396.849	63.1006
397.424	65.8157
397.702	72.9757
397.705	70.63
397.709	68.2844
398.856	75.8133
400.013	77.5399
401.169	79.3899
403.485	81.1146
405.512	82.3459
407.539	83.2069
410.436	84.0665
412.754	84.6801
416.231	85.2919
419.129	85.7812
422.317	86.0231
425.215	86.3888
427.822	87.002
430.72	87.6147
433.907	88.227
437.675	88.5914
441.733	88.585
445.791	88.5786
451.008	88.9407
456.513	90.1666
461.729	90.7756
465.207	91.017
470.135	90.8858
474.772	90.8785
478.251	90.7496
481.149	90.6215
486.367	90.3664
491.005	90.4825
495.353	90.4757
500.28	90.4679
543.759	90.2759
547.526	90.6403
552.163	91.1268
556.22	91.6142
561.146	92.4706
566.651	93.8199
571.288	94.0595
577.955	93.9256
583.174	92.9297
589.263	91.9324
593.032	91.1858
597.67	91.055
602.888	90.7999
608.395	91.1615
613.32	92.2649
618.826	92.9969
624.042	93.8529
626.94	94.2186
632.736	94.8268
638.532	95.5584
643.459	95.921
648.676	95.9127
652.445	95.6599
657.664	94.5405
661.434	93.4235
665.205	91.8126
668.396	90.4496
671.007	88.5937
671.301	86.2476
672.176	83.4067
672.469	81.5544
673.342	79.3309
674.505	77.1069
675.088	75.0072
676.832	72.5354
677.705	70.6822
677.709	67.8427
679.162	65.7417
680.325	63.7646
681.197	62.2817
681.2	60.4299
681.204	58.0843
682.367	55.9837
682.37	54.1319
684.115	51.1662
684.41	48.0794
684.415	44.993
685.288	42.8929
686.451	40.6689
687.324	38.8157
687.908	36.3456
690.23	34.6136
690.234	32.268
690.526	30.6626
691.111	27.8222
692.564	25.3508
694.017	23.1263
695.76	20.9014
698.953	18.0569
700.986	15.8315
703.019	13.853
705.051	11.6276
708.242	10.0177
712.302	8.77674
717.232	7.41096
723.032	6.16727
727.671	5.04886
732.019	4.79509
736.658	4.29395
740.716	3.91718
747.675	2.79512
753.473	2.29215
759.561	1.54182
763.909	1.28805
768.837	1.15682
773.765	0.902137
777.533	1.01965
800	0.1
850	0
