OPTIS - Spectrum file v1.0
Transmittance, created by ELE, updated LMR Jun 7, 2010
150
370	0
373.5	0
378.7	0
379	1.15453
379.9	2.38771
380.1	3.3749
381	5.71917
381	4.60808
381.6	7.07626
381.9	8.43381
382.4	9.91436
383	12.0122
383.6	13.6162
384.5	15.3432
385	17.1941
385.3	25.3417
385.3	23.1195
385.6	18.5512
385.9	29.0444
385.9	27.1926
385.9	20.8964
386.5	33.241
387	35.0919
387	31.0179
387.6	36.6959
388.2	39.5344
388.2	38.5468
388.8	41.015
389.6	43.1123
389.9	44.8403
390.2	46.5682
391.7	48.4177
392.8	51.7492
393.7	54.3404
395.1	56.8072
395.4	59.0289
396	61.3736
396.8	63.1006
397.4	65.8157
397.7	72.9757
397.7	70.63
397.7	68.2844
398.9	75.8133
400	77.5399
401.2	79.3899
403.5	81.1146
405.5	82.3459
407.5	83.2069
410.4	84.0665
412.8	84.6801
416.2	85.2919
419.1	85.7812
422.3	86.0231
425.2	86.3888
427.8	87.002
430.7	87.6147
433.9	88.227
437.7	88.5914
441.7	88.585
445.8	88.5786
451	88.9407
456.5	90.1666
461.7	90.7756
465.2	91.017
470.1	90.8858
474.8	90.8785
478.3	90.7496
481.1	90.6215
486.4	90.3664
491	90.4825
495.4	90.4757
500.3	90.4679
543.8	90.2759
547.5	90.6403
552.2	91.1268
556.2	91.6142
561.1	92.4706
566.7	93.8199
571.3	94.0595
578	93.9256
583.2	92.9297
589.3	91.9324
593	91.1858
597.7	91.055
602.9	90.7999
608.4	91.1615
613.3	92.2649
618.8	92.9969
624	93.8529
626.9	94.2186
632.7	94.8268
638.5	95.5584
643.5	95.921
648.7	95.9127
652.4	95.6599
657.7	94.5405
661.4	93.4235
665.2	91.8126
668.4	90.4496
671	88.5937
671.3	86.2476
672.2	83.4067
672.5	81.5544
673.3	79.3309
674.5	77.1069
675.1	75.0072
676.8	72.5354
677.7	70.6822
677.7	67.8427
679.2	65.7417
680.3	63.7646
681.2	62.2817
681.2	60.4299
681.2	58.0843
682.4	55.9837
682.4	54.1319
684.1	51.1662
684.4	48.0794
684.4	44.993
685.3	42.8929
686.5	40.6689
687.3	38.8157
687.9	36.3456
690.2	34.6136
690.2	32.268
690.5	30.6626
691.1	27.8222
692.6	25.3508
694	23.1263
695.8	20.9014
699	18.0569
701	15.8315
703	13.853
705.1	11.6276
708.2	10.0177
712.3	8.77674
717.2	7.41096
723	6.16727
727.7	5.04886
732	4.79509
736.7	4.29395
740.7	3.91718
747.7	2.79512
753.5	2.29215
759.6	1.54182
763.9	1.28805
768.8	1.15682
773.8	0.902137
777.5	1.01965
780	0
