OPTIS - Spectrum file v1.0
Transmittance
151
350	0
373.478039 0
378.695847 0
378.983182 1.154534
379.850646 2.387713
380.138821 3.374897
381.006285 4.608076
381.004395 5.719172
381.581794 7.076263
381.869338 8.433812
382.446528 9.914359
383.022667 12.012181
383.599646 13.616183
384.466270 15.343182
385.042830 17.194094
385.620229 18.551186
385.906093 20.896375
385.322603 23.119482
385.318822 25.341673
385.895381 27.192585
385.892231 29.044412
387.048290 31.017864
386.464799 33.240971
387.041358 35.091883
387.618338 36.695884
388.194897 38.546796
388.193217 39.534437
388.770406 41.014984
389.636400 43.112349
389.923314 44.840263
390.210229 46.568177
391.656353 48.417717
392.810101 51.749176
393.675255 54.340361
395.120329 56.807177
395.406403 59.028911
395.982122 61.373644
396.848747 63.100643
397.423836 65.815741
397.709490 68.284386
397.705499 70.630033
397.701508 72.975679
398.856097 75.813318
400.012576 77.539860
401.168845 79.389857
403.484744 81.114571
405.511628 82.345921
407.539142 83.206906
410.436221 84.066519
412.754010 84.680137
416.231219 85.291926
419.128928 85.781174
422.316912 86.023054
425.214831 86.388847
427.822475 87.002007
430.719974 87.614710
433.907328 88.226956
437.674812 88.591377
441.732781 88.584976
445.790750 88.578575
451.007508 88.940710
456.512651 90.166573
461.728990 90.775618
465.206829 91.017041
470.134572 90.885813
474.772251 90.878497
478.250720 90.749555
481.149480 90.621528
486.367288 90.366387
491.004757 90.482527
495.352581 90.475668
500.280114 90.467895
543.758562 90.275854
547.526046 90.640275
552.162885 91.126779
556.220014 91.614198
561.146077 92.470611
566.651010 93.819929
571.288269 94.059524
577.955142 93.925552
583.174211 92.929681
589.262844 91.932438
593.032219 91.185763
597.670107 91.054992
602.887916 90.799852
608.394529 91.161530
613.320173 92.264852
618.826156 92.996895
624.042074 93.852851
626.939993 94.218644
632.736041 94.826774
638.531880 95.558360
643.458783 95.920952
648.676172 95.912722
652.444706 95.659867
657.663985 94.540541
661.433989 93.423501
665.204833 91.812641
668.395548 90.449605
671.007393 88.593664
671.301239 86.247559
672.175634 83.406721
672.468640 81.554437
673.341985 79.330873
674.505186 77.106853
675.088466 75.007202
676.831796 72.535356
677.704512 70.682158
677.709343 67.842691
679.162188 65.741668
680.324968 63.764557
681.197054 62.281725
681.200204 60.429898
681.204195 58.084251
682.367185 55.983686
682.370336 54.131859
684.114506 51.166193
684.409612 48.079359
684.414863 44.992981
685.287999 42.892873
686.451199 40.668852
687.323914 38.815654
687.907825 36.345638
690.229605 34.613608
690.233596 32.267962
690.526181 30.662588
691.110722 27.822206
692.564197 25.350818
694.017253 23.126340
695.760163 20.901405
698.953398 18.056908
700.986163 15.831516
703.018508 13.853034
705.051273 11.627641
708.242408 10.017695
712.302477 8.776743
717.232321 7.410964
723.031520 6.167268
727.671089 5.048856
732.019333 4.795087
736.657852 4.293951
740.716451 3.917184
747.674859 2.795115
753.472798 2.292150
759.561012 1.541817
763.909255 1.288048
768.836999 1.156820
773.764953 0.902137
777.532857 1.019648
800	0.1
850	0